Data from chem11_Transmission_13-48-09-722.txt Node
Date: Mon Dec 20 13:48:09 EST 2021
User: rbelisle
Spectrometer: USB2+H08074
Trigger mode: 0
Integration Time (sec): 5.000000E-2
Scans to average: 10
Electric dark correction enabled: true
Nonlinearity correction enabled: false
Boxcar width: 6
XAxis mode: Wavelengths
Number of Pixels in Spectrum: 2048
>>>>>Begin Spectral Data<<<<<
189.124	9.22
189.584	-25.47
190.044	-126.08
190.504	-119.23
190.964	-455.6
191.424	2099.79
191.884	1080.99
192.343	4495.96
192.803	-3966.55
193.263	621.09
193.722	1212.34
194.182	-169.96
194.642	-55.81
195.101	-230.61
195.561	307.95
196.02	-927.4
196.479	-31.17
196.939	98.71
197.398	161.92
197.858	203.84
198.317	375.78
198.776	185.43
199.235	113.64
199.695	88.48
200.154	90.09
200.613	82.57
201.072	80.34
201.531	79.2
201.99	87.63
202.449	94.17
202.908	98.17
203.367	98.86
203.826	94.6
204.285	96.44
204.744	95.56
205.202	92.38
205.661	87.98
206.12	89.5
206.579	91.63
207.037	101.79
207.496	94.94
207.955	101.37
208.413	101.2
208.872	103.59
209.33	102.45
209.789	102.84
210.247	99.19
210.705	98.64
211.164	99.11
211.622	103.37
212.08	109.55
212.539	112.1
212.997	104.23
213.455	109.33
213.913	107.73
214.371	110.48
214.829	105.1
215.287	104.75
215.745	104.77
216.203	108.21
216.661	99.59
217.119	92.78
217.577	88.16
218.035	90.66
218.493	88.43
218.95	91.77
219.408	93.96
219.866	95.8
220.324	103.76
220.781	112.92
221.239	106.4
221.696	106.78
222.154	105.58
222.611	112.03
223.069	102.47
223.526	97.27
223.984	88.94
224.441	93.93
224.898	91.7
225.355	88.76
225.813	91.42
226.27	97.33
226.727	96.05
227.184	105.85
227.641	107.34
228.098	110.7
228.555	110.63
229.012	101.75
229.469	106.38
229.926	107.24
230.383	101.55
230.84	101.11
231.297	102.25
231.754	103.84
232.21	103.27
232.667	99.45
233.124	98.72
233.58	100.27
234.037	96.08
234.494	101.34
234.95	108.06
235.407	104.39
235.863	113.57
236.32	111.7
236.776	106.89
237.232	112.67
237.689	110.47
238.145	108.5
238.601	105.52
239.057	100.88
239.514	101.3
239.97	100.07
240.426	104.35
240.882	103.74
241.338	102.57
241.794	108.57
242.25	110.03
242.706	109.77
243.162	115.11
243.618	113.99
244.074	105.84
244.529	107.23
244.985	108.98
245.441	113.76
245.897	111.62
246.352	110.47
246.808	109.71
247.263	117.03
247.719	118.58
248.174	116.32
248.63	110.99
249.085	109.7
249.541	112.74
249.996	114.35
250.451	108.88
250.907	105.97
251.362	95.9
251.817	93.9
252.272	102.91
252.728	102.84
253.183	106.06
253.638	105.98
254.093	108.74
254.548	116.44
255.003	117.29
255.458	112.96
255.913	106.35
256.367	94.81
256.822	92.95
257.277	99.03
257.732	100.54
258.187	105.69
258.641	97.83
259.096	103.75
259.55	112.51
260.005	116.54
260.46	105.83
260.914	100.49
261.369	99.33
261.823	106.09
262.277	107.5
262.732	105.41
263.186	108.59
263.64	109.83
264.095	111.77
264.549	116.92
265.003	116.28
265.457	113.84
265.911	108.58
266.365	101.93
266.819	100.14
267.273	104.04
267.727	95.95
268.181	93.42
268.635	93.26
269.089	96.02
269.543	105.17
269.997	107.45
270.45	99.52
270.904	104.95
271.358	110.14
271.811	118.88
272.265	114.62
272.718	114.15
273.172	109.09
273.625	123.62
274.079	114.61
274.532	107.29
274.986	94.61
275.439	92.91
275.892	91.69
276.346	92.28
276.799	85.5
277.252	92.39
277.705	94.73
278.158	106
278.611	95.46
279.064	100.87
279.517	103.11
279.97	105.29
280.423	101.71
280.876	105.54
281.329	105.5
281.782	114.76
282.235	114.74
282.687	110.33
283.14	118.49
283.593	118.1
284.045	114.03
284.498	111.11
284.95	109.4
285.403	116.19
285.855	118.61
286.308	112.81
286.76	116.01
287.213	108.98
287.665	111.88
288.117	119.38
288.57	122.05
289.022	121.17
289.474	118.79
289.926	113.31
290.378	118.78
290.83	118.35
291.282	113.78
291.734	113.24
292.186	108.9
292.638	113.46
293.09	111.87
293.542	105.24
293.994	100.15
294.446	99.67
294.897	110.54
295.349	121.77
295.801	114.53
296.252	118.97
296.704	124.44
297.156	121.47
297.607	115.73
298.059	113.46
298.51	109.46
298.961	113.89
299.413	113.35
299.864	110.91
300.315	113.21
300.767	109.47
301.218	105.31
301.669	101.34
302.12	100.39
302.571	93.8
303.022	100.2
303.473	98.99
303.924	95.28
304.375	95.37
304.826	98.33
305.277	95.95
305.728	103.39
306.179	101.75
306.629	101.21
307.08	101.62
307.531	100.28
307.982	100.85
308.432	102.01
308.883	103.89
309.333	104.49
309.784	104.1
310.234	109.95
310.685	116.7
311.135	110.25
311.585	111.2
312.036	107.58
312.486	106.9
312.936	103.73
313.386	101.73
313.837	95.37
314.287	92.25
314.737	93.08
315.187	95.54
315.637	93.2
316.087	97.22
316.537	104.57
316.987	104.68
317.436	103.35
317.886	102.53
318.336	96.59
318.786	106.82
319.235	100.58
319.685	98.07
320.135	100.77
320.584	105.79
321.034	108.59
321.483	110.93
321.933	102.32
322.382	98.89
322.832	100.25
323.281	103.71
323.73	103
324.18	96.2
324.629	112.01
325.078	111.21
325.527	109.2
325.976	77.49
326.425	73.73
326.874	76.89
327.323	75.31
327.772	77.11
328.221	77.55
328.67	81.45
329.119	115.96
329.568	112.41
330.017	109.93
330.465	92.57
330.914	88.27
331.363	86.86
331.811	84.21
332.26	77.32
332.708	76.92
333.157	75.09
333.605	76.84
334.054	78.33
334.502	81.71
334.951	78.42
335.399	80.43
335.847	77.86
336.295	76.97
336.744	76.85
337.192	75.82
337.64	70.18
338.088	69.95
338.536	69.92
338.984	69.08
339.432	69.43
339.88	68.67
340.328	68.16
340.776	69.35
341.223	68.6
341.671	69.12
342.119	67.31
342.566	68.34
343.014	69.76
343.462	69.79
343.909	70.41
344.357	70.91
344.804	70.05
345.252	70.14
345.699	67.13
346.147	65.75
346.594	64.9
347.041	63.73
347.488	62.86
347.936	63.47
348.383	62.53
348.83	61.97
349.277	62.4
349.724	62.76
350.171	62.07
350.618	61.78
351.065	61.5
351.512	61.85
351.959	61.86
352.406	61.56
352.852	62.09
353.299	62.15
353.746	63.23
354.192	61.39
354.639	61.13
355.086	60.37
355.532	59.59
355.979	59.22
356.425	58.94
356.872	59.06
357.318	59.3
357.764	59.18
358.211	59.17
358.657	58.68
359.103	58.48
359.549	57.64
359.995	58.42
360.442	58.25
360.888	58.04
361.334	57.57
361.78	57.59
362.226	57.14
362.672	56.85
363.117	55.72
363.563	55.05
364.009	54.86
364.455	55.04
364.9	55.15
365.346	55.15
365.792	54.89
366.237	54.58
366.683	54.43
367.128	54.31
367.574	53.9
368.019	53.76
368.465	53.99
368.91	53.76
369.355	53.91
369.801	53.27
370.246	52.9
370.691	52.28
371.136	52.05
371.581	52.21
372.026	52.3
372.471	52.12
372.916	52.12
373.361	52.04
373.806	52.09
374.251	51.95
374.696	51.52
375.141	51.09
375.585	51.14
376.03	51.09
376.475	51.3
376.919	51.35
377.364	51.32
377.809	51.16
378.253	51.27
378.697	51.25
379.142	51.31
379.586	51.21
380.031	50.87
380.475	50.58
380.919	50.61
381.363	50.53
381.808	50.46
382.252	50.22
382.696	49.91
383.14	50.16
383.584	50.42
384.028	50.36
384.472	50.04
384.916	49.73
385.36	49.67
385.803	49.32
386.247	49.16
386.691	49
387.135	48.89
387.578	48.9
388.022	48.89
388.465	48.82
388.909	48.76
389.352	48.57
389.796	48.64
390.239	48.44
390.683	48.26
391.126	48.21
391.569	48.31
392.012	48.14
392.456	48.27
392.899	48.38
393.342	48.48
393.785	48.52
394.228	48.36
394.671	48.42
395.114	48.42
395.557	48.41
396	48.08
396.443	47.99
396.885	48
397.328	48.22
397.771	48.35
398.214	48.27
398.656	48.12
399.099	48.28
399.541	48.05
399.984	48.48
400.426	48.45
400.869	48.54
401.311	48.62
401.753	48.71
402.196	48.8
402.638	48.83
403.08	48.21
403.522	47.45
403.964	46.89
404.406	46.62
404.849	46.62
405.291	46.69
405.733	47.01
406.174	47.64
406.616	48.07
407.058	48.64
407.5	48.78
407.942	48.79
408.383	48.71
408.825	48.72
409.267	48.86
409.708	48.93
410.15	48.89
410.591	48.91
411.033	48.94
411.474	48.91
411.916	48.75
412.357	48.77
412.798	48.84
413.24	48.81
413.681	48.76
414.122	48.96
414.563	49.01
415.004	48.96
415.445	48.88
415.886	48.89
416.327	48.83
416.768	49.03
417.209	49.09
417.65	49.07
418.091	49.04
418.531	49.07
418.972	49.01
419.413	49.25
419.853	49.2
420.294	49.35
420.735	49.16
421.175	49.33
421.615	49.36
422.056	49.4
422.496	49.15
422.937	48.91
423.377	49.04
423.817	49.26
424.257	49.38
424.698	49.41
425.138	49.55
425.578	49.57
426.018	49.59
426.458	49.41
426.898	49.42
427.338	49.53
427.778	49.83
428.217	50.03
428.657	50.27
429.097	50.16
429.537	50.3
429.976	50.19
430.416	50.2
430.855	50.23
431.295	49.89
431.734	49.84
432.174	49.94
432.613	50.02
433.053	49.95
433.492	49.6
433.931	48.3
434.371	46.32
434.81	44
435.249	42.33
435.688	41.54
436.127	41.5
436.566	41.96
437.005	43.65
437.444	45.97
437.883	48.29
438.322	49.8
438.761	50.37
439.199	50.76
439.638	50.85
440.077	50.88
440.515	50.87
440.954	50.92
441.393	50.99
441.831	51.1
442.27	51.21
442.708	51.18
443.146	51.47
443.585	51.6
444.023	51.9
444.461	52.04
444.899	51.96
445.338	52.04
445.776	52.15
446.214	52.06
446.652	52.23
447.09	51.97
447.528	52.19
447.966	52.33
448.404	52.71
448.841	52.87
449.279	52.74
449.717	52.55
450.155	52.8
450.592	53.12
451.03	53.3
451.467	53.54
451.905	53.6
452.343	53.74
452.78	53.99
453.217	54.2
453.655	53.9
454.092	53.91
454.529	53.9
454.966	54.18
455.404	54.31
455.841	54.32
456.278	54.29
456.715	54.48
457.152	54.77
457.589	54.92
458.026	55.08
458.463	55.24
458.9	55.45
459.336	55.61
459.773	55.66
460.21	55.52
460.646	55.56
461.083	55.49
461.52	55.67
461.956	56.03
462.393	56.43
462.829	56.45
463.265	56.5
463.702	56.7
464.138	56.81
464.574	56.86
465.011	56.67
465.447	56.64
465.883	56.88
466.319	57.21
466.755	57.52
467.191	57.79
467.627	57.74
468.063	58.02
468.499	58.02
468.935	58.1
469.37	58.28
469.806	58.28
470.242	58.44
470.678	58.46
471.113	58.75
471.549	59.07
471.984	59.46
472.42	59.64
472.855	59.81
473.291	59.96
473.726	60.3
474.161	60.44
474.596	60.47
475.032	60.32
475.467	60.64
475.902	60.75
476.337	61.12
476.772	61.27
477.207	61.5
477.642	61.75
478.077	62.06
478.512	62
478.947	62.12
479.381	62.1
479.816	62.29
480.251	62.4
480.686	62.7
481.12	62.71
481.555	62.93
481.989	63.03
482.424	63.5
482.858	63.7
483.292	63.82
483.727	63.87
484.161	63.96
484.595	64.28
485.03	64.54
485.464	64.62
485.898	64.7
486.332	64.81
486.766	65.07
487.2	65.4
487.634	65.53
488.068	65.64
488.502	65.68
488.935	65.88
489.369	66.04
489.803	66.3
490.236	66.43
490.67	66.66
491.104	66.96
491.537	67.29
491.971	67.56
492.404	67.77
492.838	67.89
493.271	68.08
493.704	68.25
494.137	68.48
494.571	68.89
495.004	69.19
495.437	69.58
495.87	69.83
496.303	70
496.736	70.12
497.169	70.26
497.602	70.28
498.035	70.39
498.468	70.57
498.9	70.83
499.333	71.02
499.766	71.29
500.198	71.51
500.631	71.79
501.064	72.12
501.496	72.3
501.929	72.77
502.361	73.13
502.793	73.47
503.226	73.67
503.658	73.74
504.09	73.83
504.522	74.01
504.955	74.17
505.387	74.5
505.819	74.73
506.251	74.9
506.683	75.08
507.115	75.25
507.546	75.49
507.978	75.62
508.41	75.64
508.842	75.78
509.273	76.04
509.705	76.4
510.137	76.64
510.568	76.71
511	76.92
511.431	77.11
511.863	77.23
512.294	77.28
512.725	77.37
513.157	77.45
513.588	77.62
514.019	77.87
514.45	78.16
514.881	78.37
515.312	78.61
515.743	78.7
516.174	78.93
516.605	78.96
517.036	79.06
517.467	79.25
517.898	79.58
518.328	79.86
518.759	80.22
519.19	80.43
519.62	80.66
520.051	80.85
520.481	81.12
520.912	81.18
521.342	81.33
521.773	81.57
522.203	81.8
522.633	82.1
523.064	82.28
523.494	82.28
523.924	82.44
524.354	82.52
524.784	82.69
525.214	82.86
525.644	82.92
526.074	83.22
526.504	83.56
526.934	83.82
527.363	84.1
527.793	84.22
528.223	84.51
528.652	84.61
529.082	84.75
529.512	84.79
529.941	84.94
530.371	85.06
530.8	85.16
531.229	85.25
531.659	85.36
532.088	85.57
532.517	85.72
532.946	85.61
533.375	85.75
533.805	85.93
534.234	86.06
534.663	86.18
535.091	86.22
535.52	86.37
535.949	86.69
536.378	86.81
536.807	87.04
537.236	87.3
537.664	87.61
538.093	87.78
538.521	87.8
538.95	87.81
539.378	87.93
539.807	88.01
540.235	88.01
540.664	87.91
541.092	87.89
541.52	87.95
541.948	88.12
542.376	88.21
542.805	88.02
543.233	87.88
543.661	87.94
544.089	88.28
544.517	88.41
544.944	88.49
545.372	88.7
545.8	89.07
546.228	89.48
546.655	89.79
547.083	89.9
547.511	90.13
547.938	90.3
548.366	90.31
548.793	90.44
549.221	90.54
549.648	90.63
550.075	90.83
550.503	91
550.93	91.1
551.357	91.44
551.784	91.57
552.211	91.66
552.638	91.69
553.065	91.79
553.492	91.96
553.919	92.05
554.346	92.14
554.773	92.23
555.2	92.56
555.626	92.78
556.053	92.95
556.479	92.85
556.906	92.84
557.333	92.95
557.759	93.15
558.185	93.12
558.612	93.23
559.038	93.21
559.464	93.28
559.891	93.35
560.317	93.22
560.743	93.23
561.169	93.37
561.595	93.47
562.021	93.66
562.447	93.89
562.873	94.06
563.299	94.36
563.725	94.37
564.15	94.46
564.576	94.5
565.002	94.72
565.427	94.88
565.853	95.03
566.279	95
566.704	95.07
567.13	95.11
567.555	95.33
567.98	95.44
568.406	95.41
568.831	95.49
569.256	95.65
569.681	95.72
570.106	95.79
570.531	95.71
570.956	95.66
571.381	95.92
571.806	96.04
572.231	96.2
572.656	96.21
573.081	96.14
573.505	96.23
573.93	96.26
574.355	96.26
574.779	96.23
575.204	96.13
575.628	96.27
576.053	96.44
576.477	96.58
576.901	96.67
577.326	96.65
577.75	96.89
578.174	96.99
578.598	97.08
579.022	97.12
579.446	97.17
579.87	97.37
580.294	97.4
580.718	97.34
581.142	97.39
581.566	97.49
581.99	97.64
582.413	97.83
582.837	97.91
583.261	98.09
583.684	98.28
584.108	98.44
584.531	98.3
584.955	98.21
585.378	98.1
585.801	98.11
586.225	98.06
586.648	98.06
587.071	98.22
587.494	98.45
587.917	98.45
588.34	98.48
588.763	98.4
589.186	98.43
589.609	98.39
590.032	98.43
590.455	98.43
590.878	98.4
591.3	98.32
591.723	98.34
592.145	98.29
592.568	98.45
592.991	98.41
593.413	98.52
593.835	98.57
594.258	98.78
594.68	98.91
595.102	98.93
595.525	98.7
595.947	98.71
596.369	98.82
596.791	98.9
597.213	99.05
597.635	99.19
598.057	99.27
598.479	99.19
598.901	99.21
599.322	99.13
599.744	99.01
600.166	98.97
600.587	98.9
601.009	99.04
601.431	99.23
601.852	99.22
602.273	99.26
602.695	99.41
603.116	99.54
603.537	99.7
603.959	99.72
604.38	99.83
604.801	99.88
605.222	100.07
605.643	100.05
606.064	99.97
606.485	99.88
606.906	100.09
607.327	100.27
607.748	100.42
608.168	100.58
608.589	100.66
609.01	100.64
609.43	100.6
609.851	100.39
610.272	100.17
610.692	99.96
611.112	99.85
611.533	99.86
611.953	99.86
612.373	99.93
612.794	100.05
613.214	100.06
613.634	100.07
614.054	100.16
614.474	100.22
614.894	100.24
615.314	100.39
615.734	100.51
616.153	100.34
616.573	100.27
616.993	100.14
617.413	100.09
617.832	100.15
618.252	100.13
618.671	100.05
619.091	100.09
619.51	100.13
619.93	100.36
620.349	100.34
620.768	100.36
621.187	100.41
621.607	100.51
622.026	100.61
622.445	100.86
622.864	100.87
623.283	100.92
623.702	100.86
624.121	100.89
624.54	100.88
624.958	100.68
625.377	100.63
625.796	100.66
626.214	100.82
626.633	100.93
627.051	100.77
627.47	100.74
627.888	100.77
628.307	100.53
628.725	100.43
629.143	100.2
629.562	100.17
629.98	100.33
630.398	100.46
630.816	100.64
631.234	100.99
631.652	101.1
632.07	101.25
632.488	101.36
632.906	101.39
633.323	101.41
633.741	101.48
634.159	101.44
634.576	101.51
634.994	101.61
635.412	101.67
635.829	101.74
636.247	101.84
636.664	101.88
637.081	101.92
637.499	101.82
637.916	101.89
638.333	102.01
638.75	102.06
639.167	101.91
639.584	101.79
640.001	101.82
640.418	101.79
640.835	101.71
641.252	101.46
641.669	101.44
642.085	101.69
642.502	102.01
642.919	102.24
643.335	102.38
643.752	102.65
644.168	103.24
644.585	103.57
645.001	103.81
645.417	103.63
645.834	103.64
646.25	103.74
646.666	103.86
647.082	104.08
647.498	104.05
647.914	104.21
648.33	104.64
648.746	104.92
649.162	105.19
649.578	105.22
649.994	105.25
650.409	105.52
650.825	105.91
651.241	106.29
651.656	106.47
652.072	106.76
652.487	107.06
652.903	107.35
653.318	107.37
653.733	107.37
654.149	107.4
654.564	107.57
654.979	107.92
655.394	108.18
655.809	108.62
656.224	108.98
656.639	109.24
657.054	109.55
657.469	109.58
657.884	109.75
658.298	109.99
658.713	110.24
659.128	110.81
659.542	111.14
659.957	111.29
660.371	111.29
660.786	111.24
661.2	111.13
661.615	111
662.029	110.69
662.443	110.59
662.857	110.89
663.272	111.53
663.686	112
664.1	112.49
664.514	112.76
664.928	113.06
665.341	113.22
665.755	113.29
666.169	113.37
666.583	113.68
666.996	113.99
667.41	114.37
667.824	114.43
668.237	114.61
668.651	114.71
669.064	114.85
669.478	114.9
669.891	114.89
670.304	114.86
670.717	115.22
671.13	115.78
671.544	116.29
671.957	116.47
672.37	116.87
672.783	117.1
673.196	117.32
673.608	117.29
674.021	117.06
674.434	116.95
674.847	117.21
675.259	117.3
675.672	117.27
676.084	117.34
676.497	117.59
676.909	117.7
677.322	117.62
677.734	117.23
678.146	117.16
678.559	117.38
678.971	117.51
679.383	117.52
679.795	117.67
680.207	117.69
680.619	117.99
681.031	117.95
681.443	117.9
681.855	118.07
682.267	118.31
682.678	118.41
683.09	118.77
683.502	118.56
683.913	118.49
684.325	118.4
684.736	118.21
685.147	117.94
685.559	117.87
685.97	117.97
686.381	118.03
686.793	118.18
687.204	118.29
687.615	118.37
688.026	118.8
688.437	118.88
688.848	118.57
689.259	118.43
689.67	118.24
690.08	118.03
690.491	117.92
690.902	117.89
691.312	118.11
691.723	118.34
692.133	118.71
692.544	118.88
692.954	118.85
693.365	118.74
693.775	118.23
694.185	118.07
694.596	118.3
695.006	118.66
695.416	118.98
695.826	119.28
696.236	119.59
696.646	120.01
697.056	120.27
697.466	120.17
697.875	119.84
698.285	119.78
698.695	119.48
699.104	119.28
699.514	119.03
699.923	118.82
700.333	119.06
700.742	119.25
701.152	119.46
701.561	119.55
701.97	119.86
702.38	120.16
702.789	120.29
703.198	119.85
703.607	119.49
704.016	119.48
704.425	119.62
704.834	119.67
705.243	119.72
705.651	119.7
706.06	119.81
706.469	119.97
706.877	120.07
707.286	120.1
707.694	120.53
708.103	120.9
708.511	121.14
708.92	121.53
709.328	121.73
709.736	121.89
710.144	122.12
710.553	122.19
710.961	122.06
711.369	121.72
711.777	121.36
712.185	121.42
712.593	121.52
713	121.56
713.408	121.43
713.816	121.41
714.224	121.23
714.631	121.57
715.039	121.33
715.446	121.27
715.854	121.08
716.261	121.34
716.669	121.82
717.076	122.43
717.483	122.51
717.89	122.73
718.297	122.87
718.705	123.12
719.112	122.66
719.519	122.16
719.925	121.4
720.332	121.06
720.739	121.03
721.146	121.38
721.553	121.63
721.959	121.93
722.366	122.45
722.773	122.93
723.179	123.22
723.585	122.9
723.992	122.29
724.398	122.18
724.804	122.21
725.211	122.33
725.617	122.23
726.023	122.09
726.429	122.15
726.835	122.27
727.241	122.08
727.647	121.8
728.053	121.72
728.459	121.67
728.864	121.28
729.27	120.96
729.676	120.63
730.081	120.66
730.487	120.69
730.892	120.46
731.298	120.65
731.703	121.03
732.108	121.08
732.514	121.24
732.919	120.75
733.324	120.53
733.729	120.61
734.134	120.73
734.539	120.61
734.944	120.42
735.349	120.33
735.754	120.81
736.159	121.1
736.563	121.48
736.968	121.41
737.373	121.83
737.777	122.06
738.182	122.22
738.586	121.6
738.991	121.15
739.395	120.81
739.799	120.2
740.204	119.75
740.608	119.65
741.012	119.79
741.416	119.9
741.82	119.66
742.224	119.56
742.628	119.5
743.032	119.74
743.436	119.61
743.839	119.24
744.243	119.06
744.647	119.21
745.05	119.56
745.454	119.14
745.857	118.53
746.261	118.36
746.664	118.62
747.067	119.02
747.471	118.95
