Data from chem12_Transmission_13-49-18-717.txt Node
Date: Mon Dec 20 13:49:18 EST 2021
User: rbelisle
Spectrometer: USB2+H08074
Trigger mode: 0
Integration Time (sec): 5.000000E-2
Scans to average: 10
Electric dark correction enabled: true
Nonlinearity correction enabled: false
Boxcar width: 6
XAxis mode: Wavelengths
Number of Pixels in Spectrum: 2048
>>>>>Begin Spectral Data<<<<<
189.124	35.04
189.584	-8.67
190.044	-114.1
190.504	-103.16
190.964	-414.68
191.424	2180.54
191.884	1069.26
192.343	4409.05
192.803	-3869.31
193.263	566.05
193.722	1023.58
194.182	-95.99
194.642	-22.39
195.101	-161.1
195.561	275.08
196.02	-1007.99
196.479	-50.82
196.939	72.52
197.398	139.86
197.858	173.2
198.317	283.32
198.776	137.73
199.235	90.66
199.695	70.46
200.154	70.58
200.613	67.47
201.072	64.64
201.531	61.24
201.99	70.68
202.449	75.59
202.908	85.24
203.367	82.6
203.826	83.39
204.285	90.21
204.744	90.67
205.202	92.66
205.661	87.04
206.12	89.72
206.579	87.88
207.037	98.53
207.496	94.3
207.955	96.05
208.413	98.03
208.872	95.75
209.33	93.79
209.789	92.22
210.247	87.88
210.705	90.83
211.164	86.49
211.622	94.44
212.08	102.92
212.539	106.34
212.997	103.19
213.455	104.8
213.913	109.66
214.371	111.83
214.829	109.19
215.287	109.68
215.745	111.34
216.203	111.92
216.661	103.47
217.119	97.01
217.577	94.35
218.035	94.74
218.493	92.78
218.95	92.42
219.408	96.07
219.866	95.49
220.324	100.15
220.781	105.38
221.239	100.52
221.696	100.23
222.154	106.56
222.611	114.68
223.069	106.13
223.526	103.92
223.984	95.07
224.441	100.09
224.898	97.45
225.355	96.94
225.813	97.58
226.27	104.28
226.727	107.23
227.184	113.74
227.641	115.93
228.098	113.73
228.555	107.84
229.012	99.93
229.469	95.61
229.926	96.07
230.383	91.78
230.84	90.07
231.297	88.58
231.754	89.72
232.21	90.84
232.667	82.6
233.124	82.23
233.58	80.87
234.037	81.83
234.494	86
234.95	87.59
235.407	89.53
235.863	97.5
236.32	96.24
236.776	95.49
237.232	97.21
237.689	92.91
238.145	89.33
238.601	88.8
239.057	84.62
239.514	83.26
239.97	77.61
240.426	84.32
240.882	84
241.338	83
241.794	89.41
242.25	91.39
242.706	94.04
243.162	101.15
243.618	100.8
244.074	98.81
244.529	94.48
244.985	93.47
245.441	99.15
245.897	93.47
246.352	96.08
246.808	100.09
247.263	107.08
247.719	108.82
248.174	106.52
248.63	99.11
249.085	96.04
249.541	98.98
249.996	98.55
250.451	97.87
250.907	98.84
251.362	87.94
251.817	86.96
252.272	93.31
252.728	92.27
253.183	95.97
253.638	96.32
254.093	100.46
254.548	106.09
255.003	111.27
255.458	106.49
255.913	97.03
256.367	85.62
256.822	86.24
257.277	95.45
257.732	92.96
258.187	93.06
258.641	83.38
259.096	87.9
259.55	96.33
260.005	93.85
260.46	82.9
260.914	79.58
261.369	78.07
261.823	82.41
262.277	84.25
262.732	79.93
263.186	76.98
263.64	84.67
264.095	88.52
264.549	96.08
265.003	97.62
265.457	91.2
265.911	92.83
266.365	89.39
266.819	86.54
267.273	91.63
267.727	89.24
268.181	90.18
268.635	87.86
269.089	92.86
269.543	96.38
269.997	97.49
270.45	95.19
270.904	101.06
271.358	109.98
271.811	113.62
272.265	110.44
272.718	107.68
273.172	102.15
273.625	115.56
274.079	102.42
274.532	98.34
274.986	90.19
275.439	88.32
275.892	86.82
276.346	85.7
276.799	78.96
277.252	85.18
277.705	87.81
278.158	96.98
278.611	92.09
279.064	95.58
279.517	96.44
279.97	97.48
280.423	91.75
280.876	94.64
281.329	92.74
281.782	96.69
282.235	94.23
282.687	85.77
283.14	91.26
283.593	90.72
284.045	84.22
284.498	75.86
284.95	78.21
285.403	83.64
285.855	90.61
286.308	87.1
286.76	86.73
287.213	86.11
287.665	93.49
288.117	98.66
288.57	101.1
289.022	102.65
289.474	103.99
289.926	98.47
290.378	103.04
290.83	100
291.282	95.38
291.734	90.23
292.186	85.83
292.638	89.44
293.09	90.29
293.542	82.66
293.994	76.95
294.446	76.5
294.897	79.18
295.349	86.05
295.801	84.07
296.252	84.55
296.704	87.85
297.156	90.48
297.607	92.05
298.059	88.79
298.51	88.27
298.961	90.07
299.413	94.77
299.864	94.83
300.315	94.84
300.767	96.12
301.218	96.11
301.669	93.66
302.12	94.31
302.571	88.89
303.022	97.05
303.473	96.86
303.924	97.46
304.375	95.89
304.826	100.48
305.277	94.74
305.728	106.59
306.179	100.52
306.629	97.62
307.08	94.92
307.531	94.06
307.982	94.34
308.432	88.82
308.883	87.87
309.333	89.32
309.784	88.47
310.234	93.44
310.685	94.9
311.135	93.91
311.585	89.53
312.036	90.75
312.486	91.93
312.936	89.55
313.386	82.54
313.837	82.61
314.287	84.93
314.737	87.63
315.187	89.37
315.637	87.86
316.087	91.89
316.537	104
316.987	105.96
317.436	103.57
317.886	104.58
318.336	96
318.786	101.44
319.235	102.13
319.685	100.64
320.135	100.68
320.584	104.12
321.034	104.84
321.483	102.37
321.933	94.8
322.382	90.54
322.832	91.61
323.281	97.88
323.73	97.18
324.18	92.82
324.629	110.39
325.078	108
325.527	102.38
325.976	74.32
326.425	71.58
326.874	73.44
327.323	72.87
327.772	74.69
328.221	74.95
328.67	76.92
329.119	109.89
329.568	106.99
330.017	104.4
330.465	90.23
330.914	87.33
331.363	87.35
331.811	82.25
332.26	76.11
332.708	77.6
333.157	75.96
333.605	77.69
334.054	78.01
334.502	78.3
334.951	75.19
335.399	74.86
335.847	72.09
336.295	70.15
336.744	68.88
337.192	66.43
337.64	61.51
338.088	61.49
338.536	61.08
338.984	60.52
339.432	60.97
339.88	61.71
340.328	62.93
340.776	65.48
341.223	64.73
341.671	66.18
342.119	64.81
342.566	64.71
343.014	64.79
343.462	63.99
343.909	63.71
344.357	63.09
344.804	62.36
345.252	62.88
345.699	58.76
346.147	56.62
346.594	54.56
347.041	54.41
347.488	53.53
347.936	53.29
348.383	51.82
348.83	51.82
349.277	52.31
349.724	52.08
350.171	51.85
350.618	51.13
351.065	50.79
351.512	52.59
351.959	53.11
352.406	52.48
352.852	52.51
353.299	52.07
353.746	53.32
354.192	53.02
354.639	52.59
355.086	51.31
355.532	51.41
355.979	51.19
356.425	51.09
356.872	50.87
357.318	50.57
357.764	49.96
358.211	49.99
358.657	49.19
359.103	49.17
359.549	48.64
359.995	48.78
360.442	48.98
360.888	49.33
361.334	48.67
361.78	48.53
362.226	48.09
362.672	48.16
363.117	46.82
363.563	46.51
364.009	46.65
364.455	47.27
364.9	47.15
365.346	47.2
365.792	47.13
366.237	46.9
366.683	46.94
367.128	46.65
367.574	46.37
368.019	46.5
368.465	46.2
368.91	46.22
369.355	46.39
369.801	45.88
370.246	45.33
370.691	45.07
371.136	44.69
371.581	44.61
372.026	44.47
372.471	44.32
372.916	44.5
373.361	44.72
373.806	44.81
374.251	44.8
374.696	44.14
375.141	43.77
375.585	43.71
376.03	43.83
376.475	43.98
376.919	44.34
377.364	44.47
377.809	44.44
378.253	44.57
378.697	44.6
379.142	44.63
379.586	44.58
380.031	44.26
380.475	44.15
380.919	44.33
381.363	44.27
381.808	44.22
382.252	44.05
382.696	43.69
383.14	43.86
383.584	44.03
384.028	44.03
384.472	43.88
384.916	43.61
385.36	43.57
385.803	43.38
386.247	43.33
386.691	43.03
387.135	42.97
387.578	43.11
388.022	43
388.465	42.97
388.909	43.07
389.352	43.14
389.796	43.22
390.239	43.01
390.683	42.84
391.126	42.78
391.569	42.95
392.012	42.9
392.456	43.06
392.899	43.26
393.342	43.25
393.785	43.32
394.228	43.26
394.671	43.4
395.114	43.3
395.557	43.24
396	42.88
396.443	42.79
396.885	42.78
397.328	43.11
397.771	43.23
398.214	43.15
398.656	42.95
399.099	43.2
399.541	43.02
399.984	43.35
400.426	43.32
400.869	43.36
401.311	43.47
401.753	43.56
402.196	43.62
402.638	43.58
403.08	42.81
403.522	41.92
403.964	41.39
404.406	41.1
404.849	41.06
405.291	41.32
405.733	41.58
406.174	42.17
406.616	42.7
407.058	43.22
407.5	43.4
407.942	43.41
408.383	43.44
408.825	43.52
409.267	43.65
409.708	43.91
410.15	43.93
410.591	43.96
411.033	43.8
411.474	43.75
411.916	43.67
412.357	43.65
412.798	43.58
413.24	43.5
413.681	43.42
414.122	43.47
414.563	43.37
415.004	43.29
415.445	43.16
415.886	43.27
416.327	43.16
416.768	43.38
417.209	43.41
417.65	43.35
418.091	43.33
418.531	43.49
418.972	43.45
419.413	43.69
419.853	43.81
420.294	44.11
420.735	44.02
421.175	43.98
421.615	43.86
422.056	43.96
422.496	43.8
422.937	43.65
423.377	43.66
423.817	43.86
424.257	43.96
424.698	43.98
425.138	43.97
425.578	43.84
426.018	43.78
426.458	43.56
426.898	43.66
427.338	43.71
427.778	43.86
428.217	43.92
428.657	44.08
429.097	43.95
429.537	44.03
429.976	43.88
430.416	43.89
430.855	43.99
431.295	43.71
431.734	43.65
432.174	43.75
432.613	43.92
433.053	43.96
433.492	43.61
433.931	42.16
434.371	40
434.81	37.52
435.249	35.75
435.688	34.91
436.127	34.87
436.566	35.39
437.005	37.2
437.444	39.79
437.883	42.31
438.322	43.83
438.761	44.33
439.199	44.76
439.638	44.92
440.077	44.93
440.515	44.83
440.954	44.7
441.393	44.8
441.831	44.96
442.27	45.04
442.708	44.98
443.146	45.07
443.585	45.22
444.023	45.51
444.461	45.57
444.899	45.43
445.338	45.43
445.776	45.44
446.214	45.52
446.652	45.84
447.09	45.6
447.528	45.63
447.966	45.69
448.404	46.03
448.841	46.35
449.279	46.28
449.717	46
450.155	46.19
450.592	46.49
451.03	46.74
451.467	46.98
451.905	46.92
452.343	46.98
452.78	47.24
453.217	47.48
453.655	47.37
454.092	47.35
454.529	47.25
454.966	47.37
455.404	47.6
455.841	47.74
456.278	47.71
456.715	47.83
457.152	47.99
457.589	48.07
458.026	48.26
458.463	48.45
458.9	48.62
459.336	48.56
459.773	48.56
460.21	48.5
460.646	48.66
461.083	48.58
461.52	48.68
461.956	48.86
462.393	49.16
462.829	49.3
463.265	49.52
463.702	49.72
464.138	49.66
464.574	49.68
465.011	49.56
465.447	49.7
465.883	49.94
466.319	50.19
466.755	50.35
467.191	50.48
467.627	50.56
468.063	50.9
468.499	50.87
468.935	50.8
469.37	50.71
469.806	50.66
470.242	50.76
470.678	50.88
471.113	51.09
471.549	51.33
471.984	51.49
472.42	51.59
472.855	51.82
473.291	51.96
473.726	52.24
474.161	52.22
474.596	52.12
475.032	51.97
475.467	52.29
475.902	52.46
476.337	52.75
476.772	52.76
477.207	52.7
477.642	52.86
478.077	53.17
478.512	53.17
478.947	53.31
479.381	53.19
479.816	53.26
480.251	53.34
480.686	53.62
481.12	53.68
481.555	53.84
481.989	53.84
482.424	54.14
482.858	54.28
483.292	54.37
483.727	54.44
484.161	54.53
484.595	54.72
485.03	54.83
485.464	54.81
485.898	54.85
486.332	55.01
486.766	55.29
487.2	55.57
487.634	55.69
488.068	55.76
488.502	55.81
488.935	56.05
489.369	56.23
489.803	56.48
490.236	56.6
490.67	56.76
491.104	57.07
491.537	57.36
491.971	57.63
492.404	57.88
492.838	58.04
493.271	58.2
493.704	58.35
494.137	58.53
494.571	58.95
495.004	59.25
495.437	59.6
495.87	59.85
496.303	60.01
496.736	60.08
497.169	60.16
497.602	60.13
498.035	60.23
498.468	60.39
498.9	60.59
499.333	60.73
499.766	60.97
500.198	61.08
500.631	61.33
501.064	61.68
501.496	61.93
501.929	62.34
502.361	62.61
502.793	62.83
503.226	62.96
503.658	62.98
504.09	63.08
504.522	63.29
504.955	63.5
505.387	63.7
505.819	63.79
506.251	63.87
506.683	64.03
507.115	64.23
507.546	64.55
507.978	64.74
508.41	64.73
508.842	64.77
509.273	64.93
509.705	65.25
510.137	65.55
510.568	65.75
511	65.99
511.431	66.09
511.863	66.05
512.294	65.97
512.725	66.02
513.157	66.2
513.588	66.52
514.019	66.81
514.45	66.99
514.881	67.04
515.312	67.13
515.743	67.23
516.174	67.56
516.605	67.83
517.036	68.07
517.467	68.17
517.898	68.22
518.328	68.26
518.759	68.47
519.19	68.77
519.62	69.2
520.051	69.56
520.481	69.8
520.912	69.73
521.342	69.65
521.773	69.76
522.203	70.05
522.633	70.54
523.064	70.93
523.494	70.99
523.924	71.04
524.354	70.92
524.784	70.9
525.214	71.07
525.644	71.36
526.074	71.89
526.504	72.26
526.934	72.42
527.363	72.39
527.793	72.24
528.223	72.41
528.652	72.72
529.082	73.19
529.512	73.52
529.941	73.75
530.371	73.73
530.8	73.54
531.229	73.44
531.659	73.57
532.088	74.04
532.517	74.53
532.946	74.68
533.375	74.79
533.805	74.71
534.234	74.55
534.663	74.58
535.091	74.8
535.52	75.28
535.949	75.84
536.378	76.08
536.807	76.11
537.236	76
537.664	76.02
538.093	76.12
538.521	76.37
538.95	76.77
539.378	77.24
539.807	77.32
540.235	77.02
540.664	76.42
541.092	76.06
541.52	76.09
541.948	76.51
542.376	77.03
542.805	77.23
543.233	77.14
543.661	76.91
544.089	76.72
544.517	76.48
544.944	76.46
545.372	76.96
545.8	77.73
546.228	78.46
546.655	78.77
547.083	78.64
547.511	78.49
547.938	78.43
548.366	78.57
548.793	79.09
549.221	79.69
549.648	80.23
550.075	80.5
550.503	80.33
550.93	80
551.357	80
551.784	80.11
552.211	80.45
552.638	80.93
553.065	81.47
553.492	81.77
553.919	81.59
554.346	81.27
554.773	81.01
555.2	81.23
555.626	81.7
556.053	82.37
556.479	82.85
556.906	83.2
557.333	83.28
557.759	83.2
558.185	82.85
558.612	82.79
559.038	82.95
559.464	83.51
559.891	84.17
560.317	84.52
560.743	84.62
561.169	84.5
561.595	84.18
562.021	83.94
562.447	84.01
562.873	84.42
563.299	85.14
563.725	85.63
564.15	85.99
564.576	85.96
565.002	85.79
565.427	85.49
565.853	85.38
566.279	85.4
566.704	85.81
567.13	86.42
567.555	87.11
567.98	87.38
568.406	87.17
568.831	86.81
569.256	86.55
569.681	86.35
570.106	86.52
570.531	86.88
570.956	87.41
571.381	88.06
571.806	88.27
572.231	88.24
572.656	87.79
573.081	87.33
573.505	87.28
573.93	87.52
574.355	88.05
574.779	88.57
575.204	88.89
575.628	89.12
576.053	89.04
576.477	88.66
576.901	88.28
577.326	88.08
577.75	88.49
578.174	89.1
578.598	89.68
579.022	90.08
579.446	90.11
579.87	89.98
580.294	89.54
580.718	88.97
581.142	88.78
581.566	88.98
581.99	89.56
582.413	90.25
582.837	90.72
583.261	90.95
583.684	90.85
584.108	90.52
584.531	89.9
584.955	89.58
585.378	89.56
585.801	89.97
586.225	90.54
586.648	91.05
587.071	91.46
587.494	91.58
587.917	91.22
588.34	90.83
588.763	90.38
589.186	90.37
589.609	90.65
590.032	91.28
590.455	91.89
590.878	92.26
591.3	92.26
591.723	92.02
592.145	91.46
592.568	91.13
592.991	90.84
593.413	91.05
593.835	91.49
594.258	92.26
594.68	92.85
595.102	93.12
595.525	92.84
595.947	92.44
596.369	92.03
596.791	91.7
597.213	91.69
597.635	92.06
598.057	92.64
598.479	93.12
598.901	93.6
599.322	93.73
599.744	93.5
600.166	93.15
600.587	92.64
601.009	92.39
601.431	92.56
601.852	92.83
602.273	93.34
602.695	94.05
603.116	94.56
603.537	94.8
603.959	94.64
604.38	94.4
604.801	93.98
605.222	93.93
605.643	93.95
606.064	94.29
606.485	94.79
606.906	95.53
607.327	96.13
607.748	96.49
608.168	96.57
608.589	96.38
609.01	96.11
609.43	95.91
609.851	95.76
610.272	95.87
610.692	96.1
611.112	96.41
611.533	96.64
611.953	96.73
612.373	96.75
612.794	96.62
613.214	96.35
613.634	96.18
614.054	96.25
614.474	96.48
614.894	96.87
615.314	97.39
615.734	97.86
616.153	97.89
616.573	97.86
616.993	97.61
617.413	97.33
617.832	97.1
618.252	96.96
618.671	96.97
619.091	97.21
619.51	97.5
619.93	98.02
620.349	98.19
620.768	98.32
621.187	98.27
621.607	98.09
622.026	97.88
622.445	97.86
622.864	97.73
623.283	97.88
623.702	98.12
624.121	98.52
624.54	98.82
624.958	98.87
625.377	98.95
625.796	98.94
626.214	98.87
626.633	98.73
627.051	98.45
627.47	98.46
627.888	98.72
628.307	98.87
628.725	99.13
629.143	99.17
629.562	99.24
629.98	99.44
630.398	99.51
630.816	99.43
631.234	99.49
631.652	99.42
632.07	99.55
632.488	99.78
632.906	100.08
633.323	100.39
633.741	100.67
634.159	100.81
634.576	100.98
634.994	101.06
635.412	100.97
635.829	100.79
636.247	100.74
636.664	100.8
637.081	100.97
637.499	101.13
637.916	101.55
638.333	101.97
638.75	102.25
639.167	102.19
639.584	101.96
640.001	101.81
640.418	101.49
640.835	101.15
641.252	100.81
641.669	100.84
642.085	101.22
642.502	101.66
642.919	102.04
643.335	102.23
643.752	102.49
644.168	102.91
644.585	103.01
645.001	103.02
645.417	102.6
645.834	102.42
646.25	102.45
646.666	102.61
647.082	102.94
647.498	103.05
647.914	103.33
648.33	103.8
648.746	104.02
649.162	104.09
649.578	103.87
649.994	103.66
650.409	103.7
650.825	103.85
651.241	104.16
651.656	104.45
652.072	104.89
652.487	105.32
652.903	105.73
653.318	105.8
653.733	105.76
654.149	105.63
654.564	105.59
654.979	105.63
655.394	105.6
655.809	105.81
656.224	106.08
656.639	106.37
657.054	106.69
657.469	106.72
657.884	106.82
658.298	106.92
658.713	106.96
659.128	107.28
659.542	107.37
659.957	107.27
660.371	107.11
660.786	106.94
661.2	106.83
661.615	106.74
662.029	106.44
662.443	106.34
662.857	106.6
663.272	107.13
663.686	107.42
664.1	107.74
664.514	107.79
664.928	107.75
665.341	107.59
665.755	107.43
666.169	107.35
666.583	107.59
666.996	107.91
667.41	108.33
667.824	108.37
668.237	108.49
668.651	108.55
669.064	108.66
669.478	108.65
669.891	108.5
670.304	108.41
670.717	108.69
671.13	109.09
671.544	109.52
671.957	109.64
672.37	109.99
672.783	110.19
673.196	110.39
673.608	110.35
674.021	110.11
674.434	109.96
674.847	110.15
675.259	110.17
675.672	110.11
676.084	110.19
676.497	110.53
676.909	110.71
677.322	110.68
677.734	110.37
678.146	110.33
678.559	110.6
678.971	110.86
679.383	110.9
679.795	111
680.207	110.97
680.619	111.24
681.031	111.16
681.443	111.05
681.855	111.16
682.267	111.44
682.678	111.56
683.09	111.87
683.502	111.67
683.913	111.59
684.325	111.36
684.736	111.15
685.147	110.91
685.559	110.9
685.97	111.08
686.381	111.26
686.793	111.43
687.204	111.5
687.615	111.55
688.026	111.86
688.437	111.87
688.848	111.54
689.259	111.41
689.67	111.31
690.08	111.21
690.491	111.22
690.902	111.29
691.312	111.56
691.723	111.8
692.133	112.23
692.544	112.41
692.954	112.23
693.365	111.99
693.775	111.34
694.185	111.1
694.596	111.19
695.006	111.5
695.416	111.8
695.826	112.06
696.236	112.38
696.646	112.83
697.056	113.09
697.466	113.01
697.875	112.69
698.285	112.66
698.695	112.4
699.104	112.14
699.514	111.79
699.923	111.51
700.333	111.7
700.742	111.84
701.152	112.08
701.561	112.32
701.97	112.75
702.38	113.26
702.789	113.58
703.198	113.34
703.607	112.94
704.016	112.74
704.425	112.72
704.834	112.55
705.243	112.43
705.651	112.24
706.06	112.25
706.469	112.31
706.877	112.32
707.286	112.4
707.694	112.91
708.103	113.37
708.511	113.66
708.92	114.16
709.328	114.39
709.736	114.37
710.144	114.33
710.553	114.1
710.961	113.64
711.369	113.1
711.777	112.58
712.185	112.45
712.593	112.45
713	112.53
713.408	112.6
713.816	112.95
714.224	113.09
714.631	113.65
715.039	113.52
715.446	113.38
715.854	112.84
716.261	112.64
716.669	112.66
717.076	112.89
717.483	112.87
717.89	113.09
718.297	113.24
718.705	113.71
719.112	113.5
719.519	113.33
719.925	113.04
720.332	113.17
720.739	113.5
721.146	113.94
721.553	114.15
721.959	114.13
722.366	114.2
722.773	114.18
723.179	114.01
723.585	113.41
723.992	112.49
724.398	112.32
724.804	112.57
725.211	112.98
725.617	113.32
726.023	113.79
726.429	114.45
726.835	114.97
727.241	115.05
727.647	114.78
728.053	114.42
728.459	113.99
728.864	113.24
729.27	112.72
729.676	112.17
730.081	112.02
730.487	112.03
730.892	111.95
731.298	112.39
731.703	113.14
732.108	113.57
732.514	114.06
732.919	113.86
733.324	113.85
733.729	113.83
734.134	113.62
734.539	112.89
734.944	112.1
735.349	111.5
735.754	111.51
736.159	111.54
736.563	111.73
736.968	111.79
737.373	112.5
737.777	113.16
738.182	113.94
738.586	113.8
738.991	113.77
739.395	113.62
739.799	113.09
740.204	112.55
740.608	112.1
741.012	111.82
741.416	111.43
741.82	110.73
742.224	110.32
742.628	110.18
743.032	110.51
743.436	110.61
743.839	110.77
744.243	111.25
744.647	111.98
745.05	112.81
745.454	112.64
745.857	112.15
746.261	111.81
746.664	111.62
747.067	111.45
747.471	110.74
747.874	110.18
748.277	109.86
748.68	109.85
749.083	109.8
749.486	109.54
749.889	109.54
750.292	109.93
750.695	110.68
751.098	111.48
751.5	111.85
751.903	112.37
752.306	112.49
